PE FL                   SPECTRUM    ASCII       PEDS        1.60        
  -1
EP1#02
18/03/15
16:01:04.00
18/03/15
16:03:48.00


600.000000
1









LS55
328.00
15.00
15.00
SCAN
1
20
100
100
0
100
0
1
0
1
7
ON
539 328 
1 0 0
#HDR
-1
-1
#GR
NM

0.00002384185791015625
0.0
350.000000
0.500000
501
8
65.282000
4.928260
#DATA
350.000000	65.282000 
350.500000	54.645670 
351.000000	44.866456 
351.500000	36.396431 
352.000000	29.517756 
352.500000	24.235247 
353.000000	20.356657 
353.500000	17.557019 
354.000000	15.400528 
354.500000	13.687006 
355.000000	12.393806 
355.500000	11.395342 
356.000000	10.646075 
356.500000	10.072172 
357.000000	9.637915  
357.500000	9.296881  
358.000000	9.032178  
358.500000	8.826853  
359.000000	8.658711  
359.500000	8.510459  
360.000000	8.378818  
360.500000	8.257032  
361.000000	8.144579  
361.500000	8.034754  
362.000000	7.926823  
362.500000	7.831976  
363.000000	7.747717  
363.500000	7.669821  
364.000000	7.592280  
364.500000	7.514706  
365.000000	7.440450  
365.500000	7.366040  
366.000000	7.287670  
366.500000	7.214137  
367.000000	7.150086  
367.500000	7.096931  
368.000000	7.047607  
368.500000	6.999713  
369.000000	6.953254  
369.500000	6.909622  
370.000000	6.859846  
370.500000	6.810075  
371.000000	6.762245  
371.500000	6.723053  
372.000000	6.692028  
372.500000	6.667517  
373.000000	6.651512  
373.500000	6.646135  
374.000000	6.639997  
374.500000	6.634978  
375.000000	6.627021  
375.500000	6.615579  
376.000000	6.604659  
376.500000	6.594202  
377.000000	6.582924  
377.500000	6.574732  
378.000000	6.565071  
378.500000	6.563325  
379.000000	6.570905  
379.500000	6.583726  
380.000000	6.606176  
380.500000	6.637314  
381.000000	6.673278  
381.500000	6.708446  
382.000000	6.735413  
382.500000	6.756336  
383.000000	6.773948  
383.500000	6.782495  
384.000000	6.783321  
384.500000	6.780515  
385.000000	6.774704  
385.500000	6.762239  
386.000000	6.739342  
386.500000	6.709525  
387.000000	6.679655  
387.500000	6.648318  
388.000000	6.614301  
388.500000	6.580028  
389.000000	6.548219  
389.500000	6.514435  
390.000000	6.475174  
390.500000	6.429995  
391.000000	6.382678  
391.500000	6.337609  
392.000000	6.289181  
392.500000	6.238773  
393.000000	6.187840  
393.500000	6.137178  
394.000000	6.082937  
394.500000	6.025491  
395.000000	5.969489  
395.500000	5.924691  
396.000000	5.885726  
396.500000	5.851754  
397.000000	5.819622  
397.500000	5.790528  
398.000000	5.757523  
398.500000	5.720521  
399.000000	5.679571  
399.500000	5.644812  
400.000000	5.611857  
400.500000	5.581040  
401.000000	5.555224  
401.500000	5.534991  
402.000000	5.512290  
402.500000	5.487329  
403.000000	5.457116  
403.500000	5.428387  
404.000000	5.400068  
404.500000	5.369857  
405.000000	5.344114  
405.500000	5.322575  
406.000000	5.299687  
406.500000	5.280510  
407.000000	5.262612  
407.500000	5.248329  
408.000000	5.240877  
408.500000	5.236368  
409.000000	5.235346  
409.500000	5.234010  
410.000000	5.228254  
410.500000	5.221185  
411.000000	5.211008  
411.500000	5.195517  
412.000000	5.180306  
412.500000	5.167463  
413.000000	5.154614  
413.500000	5.138862  
414.000000	5.119801  
414.500000	5.098956  
415.000000	5.079312  
415.500000	5.060353  
416.000000	5.046002  
416.500000	5.039234  
417.000000	5.036780  
417.500000	5.033140  
418.000000	5.029357  
418.500000	5.022872  
419.000000	5.016006  
419.500000	5.011096  
420.000000	5.007008  
420.500000	5.000788  
421.000000	4.995797  
421.500000	4.990336  
422.000000	4.985816  
422.500000	4.977969  
423.000000	4.969474  
423.500000	4.964732  
424.000000	4.961801  
424.500000	4.956687  
425.000000	4.951122  
425.500000	4.943771  
426.000000	4.937584  
426.500000	4.932504  
427.000000	4.928260  
427.500000	4.928959  
428.000000	4.935099  
428.500000	4.942670  
429.000000	4.949202  
429.500000	4.952661  
430.000000	4.955377  
430.500000	4.961415  
431.000000	4.969415  
431.500000	4.980431  
432.000000	4.993088  
432.500000	5.007471  
433.000000	5.022575  
433.500000	5.035424  
434.000000	5.045049  
434.500000	5.054728  
435.000000	5.065693  
435.500000	5.078480  
436.000000	5.094032  
436.500000	5.112198  
437.000000	5.132454  
437.500000	5.154310  
438.000000	5.174116  
438.500000	5.190023  
439.000000	5.208178  
439.500000	5.226911  
440.000000	5.245480  
440.500000	5.260129  
441.000000	5.273187  
441.500000	5.286284  
442.000000	5.298099  
442.500000	5.303730  
443.000000	5.311025  
443.500000	5.317387  
444.000000	5.325484  
444.500000	5.331463  
445.000000	5.338670  
445.500000	5.347724  
446.000000	5.357769  
446.500000	5.362349  
447.000000	5.365724  
447.500000	5.367056  
448.000000	5.371368  
448.500000	5.375558  
449.000000	5.382821  
449.500000	5.390536  
450.000000	5.397344  
450.500000	5.399700  
451.000000	5.400489  
451.500000	5.394665  
452.000000	5.385265  
452.500000	5.375971  
453.000000	5.370278  
453.500000	5.367635  
454.000000	5.369846  
454.500000	5.375381  
455.000000	5.384142  
455.500000	5.387883  
456.000000	5.385140  
456.500000	5.377808  
457.000000	5.367926  
457.500000	5.352105  
458.000000	5.335474  
458.500000	5.322431  
459.000000	5.313931  
459.500000	5.304644  
460.000000	5.291625  
460.500000	5.279922  
461.000000	5.269219  
461.500000	5.254510  
462.000000	5.240566  
462.500000	5.235887  
463.000000	5.236758  
463.500000	5.239021  
464.000000	5.236086  
464.500000	5.229709  
465.000000	5.218885  
465.500000	5.202221  
466.000000	5.183627  
466.500000	5.169627  
467.000000	5.161204  
467.500000	5.161700  
468.000000	5.167252  
468.500000	5.176877  
469.000000	5.185510  
469.500000	5.193213  
470.000000	5.202424  
470.500000	5.211868  
471.000000	5.218209  
471.500000	5.226726  
472.000000	5.238950  
472.500000	5.252381  
473.000000	5.265056  
473.500000	5.277077  
474.000000	5.294706  
474.500000	5.314364  
475.000000	5.332747  
475.500000	5.354329  
476.000000	5.378941  
476.500000	5.406353  
477.000000	5.436362  
477.500000	5.464657  
478.000000	5.495754  
478.500000	5.524892  
479.000000	5.551140  
479.500000	5.577512  
480.000000	5.602883  
480.500000	5.626327  
481.000000	5.647976  
481.500000	5.666782  
482.000000	5.687471  
482.500000	5.704403  
483.000000	5.718191  
483.500000	5.729461  
484.000000	5.738687  
484.500000	5.745060  
485.000000	5.747204  
485.500000	5.745510  
486.000000	5.743821  
486.500000	5.738868  
487.000000	5.730678  
487.500000	5.718562  
488.000000	5.704377  
488.500000	5.688987  
489.000000	5.673334  
489.500000	5.657980  
490.000000	5.644609  
490.500000	5.634474  
491.000000	5.623900  
491.500000	5.612168  
492.000000	5.598769  
492.500000	5.583379  
493.000000	5.572892  
493.500000	5.564758  
494.000000	5.558715  
494.500000	5.558551  
495.000000	5.561381  
495.500000	5.568590  
496.000000	5.578898  
496.500000	5.590144  
497.000000	5.609635  
497.500000	5.637547  
498.000000	5.674818  
498.500000	5.722364  
499.000000	5.777109  
499.500000	5.840862  
500.000000	5.917967  
500.500000	6.006135  
501.000000	6.109221  
501.500000	6.230512  
502.000000	6.374607  
502.500000	6.535159  
503.000000	6.710036  
503.500000	6.898372  
504.000000	7.100592  
504.500000	7.313340  
505.000000	7.534077  
505.500000	7.761834  
506.000000	8.000965  
506.500000	8.244090  
507.000000	8.495183  
507.500000	8.754021  
508.000000	9.020581  
508.500000	9.294232  
509.000000	9.575049  
509.500000	9.863693  
510.000000	10.164217 
510.500000	10.470734 
511.000000	10.783215 
511.500000	11.102603 
512.000000	11.427838 
512.500000	11.755484 
513.000000	12.089864 
513.500000	12.430545 
514.000000	12.774907 
514.500000	13.126868 
515.000000	13.484144 
515.500000	13.841696 
516.000000	14.198329 
516.500000	14.548678 
517.000000	14.894995 
517.500000	15.237265 
518.000000	15.564868 
518.500000	15.887717 
519.000000	16.206732 
519.500000	16.517525 
520.000000	16.815696 
520.500000	17.095661 
521.000000	17.355823 
521.500000	17.596831 
522.000000	17.807090 
522.500000	17.998495 
523.000000	18.173525 
523.500000	18.332247 
524.000000	18.471032 
524.500000	18.594515 
525.000000	18.708273 
525.500000	18.807250 
526.000000	18.884012 
526.500000	18.931879 
527.000000	18.948271 
527.500000	18.935523 
528.000000	18.888935 
528.500000	18.814672 
529.000000	18.719232 
529.500000	18.600256 
530.000000	18.467450 
530.500000	18.316019 
531.000000	18.146176 
531.500000	17.960017 
532.000000	17.755913 
532.500000	17.542364 
533.000000	17.316094 
533.500000	17.074056 
534.000000	16.827439 
534.500000	16.572769 
535.000000	16.308562 
535.500000	16.029413 
536.000000	15.739532 
536.500000	15.455926 
537.000000	15.170601 
537.500000	14.885256 
538.000000	14.593254 
538.500000	14.298323 
539.000000	14.001754 
539.500000	13.695435 
540.000000	13.384340 
540.500000	13.077909 
541.000000	12.770142 
541.500000	12.472403 
542.000000	12.178508 
542.500000	11.897984 
543.000000	11.631075 
543.500000	11.372504 
544.000000	11.125984 
544.500000	10.891379 
545.000000	10.661004 
545.500000	10.438786 
546.000000	10.215687 
546.500000	9.997118  
547.000000	9.780327  
547.500000	9.570887  
548.000000	9.374209  
548.500000	9.193588  
549.000000	9.021924  
549.500000	8.863153  
550.000000	8.713297  
550.500000	8.574702  
551.000000	8.439715  
551.500000	8.308407  
552.000000	8.180612  
552.500000	8.064760  
553.000000	7.953709  
553.500000	7.846926  
554.000000	7.743868  
554.500000	7.651392  
555.000000	7.567252  
555.500000	7.488377  
556.000000	7.411553  
556.500000	7.346629  
557.000000	7.288812  
557.500000	7.231823  
558.000000	7.168547  
558.500000	7.108515  
559.000000	7.054032  
559.500000	7.005163  
560.000000	6.957163  
560.500000	6.912594  
561.000000	6.876271  
561.500000	6.848040  
562.000000	6.821114  
562.500000	6.796247  
563.000000	6.772390  
563.500000	6.755818  
564.000000	6.741760  
564.500000	6.728096  
565.000000	6.713424  
565.500000	6.700668  
566.000000	6.686760  
566.500000	6.670984  
567.000000	6.651413  
567.500000	6.635366  
568.000000	6.620851  
568.500000	6.608006  
569.000000	6.596489  
569.500000	6.587857  
570.000000	6.579500  
570.500000	6.569737  
571.000000	6.560941  
571.500000	6.555775  
572.000000	6.551870  
572.500000	6.546318  
573.000000	6.539461  
573.500000	6.530719  
574.000000	6.513577  
574.500000	6.485752  
575.000000	6.452306  
575.500000	6.418015  
576.000000	6.388896  
576.500000	6.363637  
577.000000	6.340668  
577.500000	6.323381  
578.000000	6.311234  
578.500000	6.296512  
579.000000	6.280607  
579.500000	6.264043  
580.000000	6.249806  
580.500000	6.241066  
581.000000	6.230288  
581.500000	6.219961  
582.000000	6.210913  
582.500000	6.196827  
583.000000	6.177495  
583.500000	6.154663  
584.000000	6.128107  
584.500000	6.104450  
585.000000	6.080265  
585.500000	6.057838  
586.000000	6.041431  
586.500000	6.028506  
587.000000	6.017784  
587.500000	6.009920  
588.000000	6.001228  
588.500000	5.993698  
589.000000	5.984607  
589.500000	5.973040  
590.000000	5.962265  
590.500000	5.956398  
591.000000	5.953280  
591.500000	5.952844  
592.000000	5.951252  
592.500000	5.950726  
593.000000	5.948086  
593.500000	5.941409  
594.000000	5.933146  
594.500000	5.927754  
595.000000	5.923450  
595.500000	5.920081  
596.000000	5.914799  
596.500000	5.909036  
597.000000	5.898948  
597.500000	5.884971  
598.000000	5.868655  
598.500000	5.854989  
599.000000	5.846911  
599.500000	5.845540  
600.000000	5.848000  

