Malayasia 5 third sample used 1 µm as thickness but it is unknown	Malayasia 5 third sample used 1 µm as thickness but it is unknown            T.C.type=R	Distance=650.000000E-3	Diameter=1.248000E+0	Depth=100.000000E-6	Width=800.000000E-3	
Measurement temp.(C)	Resistivity(Ohm m)	D.Volt./D.Temp.(V/K)	Wire seebeck(V/K)	Seebeck coeff.(V/K)	Power factor(W/m K^2)	Figure of merit(1/K)	Dark EMF(V)	R^2 by Seebeck	Sigma by  Seebeck
4.416055E+1	3.276580E-6	1.622592E-5	-5.747684E-6	1.047823E-5	3.350853E-5	0.000000E+0	-1.069382E-6	9.996100E-1	3.205078E-7
5.966502E+1	3.357355E-6	1.670543E-5	-6.162088E-6	1.054335E-5	3.311003E-5	0.000000E+0	-3.688024E-6	9.996414E-1	3.164156E-7
7.763300E+1	3.403639E-6	1.747754E-5	-6.631177E-6	1.084636E-5	3.456404E-5	0.000000E+0	-7.400414E-6	9.992804E-1	4.689971E-7
9.655510E+1	3.395527E-6	1.678753E-5	-7.108031E-6	9.679496E-6	2.759296E-5	0.000000E+0	-1.073069E-5	9.999917E-1	4.838791E-8
1.151626E+2	3.402155E-6	1.584275E-5	-7.557644E-6	8.285110E-6	2.017635E-5	0.000000E+0	-1.562134E-5	9.999711E-1	8.521506E-8
1.345271E+2	3.569750E-6	1.492552E-5	-8.004755E-6	6.920761E-6	1.341745E-5	0.000000E+0	-2.182793E-5	9.999951E-1	3.296139E-8
1.535566E+2	4.225811E-6	1.404516E-5	-8.424293E-6	5.620872E-6	7.476481E-6	0.000000E+0	-2.620564E-5	9.998539E-1	1.697987E-7
1.723515E+2	4.455061E-6	1.535508E-5	-8.820929E-6	6.534151E-6	9.583512E-6	0.000000E+0	-3.193196E-5	9.898873E-1	1.552001E-6
1.909196E+2	3.642213E-6	2.203091E-5	-9.197397E-6	1.283352E-5	4.521952E-5	0.000000E+0	-3.252262E-5	9.988496E-1	7.476506E-7
2.100222E+2	3.640442E-6	2.556658E-5	-9.570880E-6	1.599570E-5	7.028330E-5	0.000000E+0	-3.356111E-5	9.994749E-1	5.860141E-7
2.292200E+2	3.588829E-6	2.720943E-5	-9.934262E-6	1.727517E-5	8.315565E-5	0.000000E+0	-3.685626E-5	9.999547E-1	1.831326E-7
2.480079E+2	3.281571E-6	2.695421E-5	-1.028020E-5	1.667401E-5	8.472240E-5	0.000000E+0	-4.401046E-5	9.980445E-1	1.193118E-6
2.670932E+2	3.180939E-6	3.205507E-5	-1.062353E-5	2.143153E-5	1.443947E-4	0.000000E+0	-5.187325E-5	9.991711E-1	9.232623E-7
2.860288E+2	5.350202E-6	2.728852E-5	-1.095753E-5	1.633099E-5	4.984881E-5	0.000000E+0	-5.087971E-5	9.941067E-1	2.101076E-6
